Sample;MgB2
V-V length(cm);0.500000
Field (T);0.000000
Temp (K);20.000000
Estimated Ic, n0.0000000.0000000.0000000.0000000.0000000.0000000.0000000.0000000.0000000.0000000.0000000.0000000.0000000.0000000.0000000.0000000.0000000.0000000.0000000.0000000.0000000.0000000.0000000.0000000.0000000.0000000.0000000.0000000.0000000.0000000.0000000.0000000.0000000.0000000.0000000.0000000.0000000.0000000.0000000.2430740.0000000.0000000.0000000.0000000.0000000.0000000.0000000.0000000.0000000.0000000.0000000.0000000.0000000.0000000.0000000.0000000.0000000.0000000.0000000.0000000.0000000.0000000.0000000.0000000.0000000.0000000.0000000.0000000.0000000.0000004.93790711.047219Time	Current	Voltage
(sec)	A (50mV/300A)	uV
0.000	-0.011	0.000	324.999	330.131	0.000
0.010	-0.011	0.011	324.999	330.131	0.000
0.026	-0.011	0.011	324.999	330.131	0.000
0.105	-0.011	0.002	324.999	330.131	0.000
0.131	-0.011	0.002	324.999	330.131	0.000
0.197	-0.011	-0.009	324.999	330.131	0.000
0.206	-0.011	-0.009	324.999	330.131	0.000
0.290	-0.011	0.017	324.999	330.131	0.000
0.300	-0.011	0.017	324.999	330.131	0.000
0.411	-0.011	0.005	324.999	330.131	0.000
0.421	-0.011	0.005	324.999	330.131	0.000
0.499	-0.011	-0.006	324.999	330.131	0.000
0.508	-0.011	-0.006	324.999	330.131	0.000
0.590	-0.011	0.005	324.999	330.131	0.000
0.599	-0.011	0.005	324.999	330.131	0.000
0.680	-0.011	0.009	324.999	330.131	0.000
0.689	-0.011	0.009	324.999	330.131	0.000
0.770	-0.011	0.017	324.999	330.131	0.000
0.779	-0.011	0.017	324.999	330.131	0.000
0.890	-0.011	0.013	324.999	330.131	0.000
0.903	-0.011	0.013	324.999	330.131	0.000
0.990	-0.011	-0.003	324.999	330.131	0.000
1.002	-0.011	-0.003	324.999	330.131	0.000
1.086	-0.011	-0.004	324.999	330.131	0.000
1.100	-0.011	-0.004	324.999	330.131	0.000
1.179	-0.011	0.001	324.999	330.131	0.000
1.188	-0.011	0.001	324.999	330.131	0.000
1.269	-0.011	-0.019	324.999	330.131	0.000
1.277	-0.011	-0.019	324.999	330.131	0.000
1.390	-0.011	-0.028	324.999	330.131	0.000
1.398	-0.011	-0.028	324.999	330.131	0.000
1.478	-0.011	-0.021	324.999	330.131	0.000
1.487	-0.011	-0.021	324.999	330.131	0.000
1.568	-0.011	-0.029	324.999	330.131	0.000
1.577	-0.011	-0.029	324.999	330.131	0.000
1.659	0.147	0.067	324.999	330.131	0.000
1.668	0.147	0.067	324.999	330.131	0.000
1.748	0.236	0.390	324.999	330.131	0.000
1.756	0.236	0.390	324.999	330.131	0.000
1.872	0.301	1.411	324.999	330.131	0.000
1.886	0.301	1.411	324.999	330.131	0.000
1.968	0.380	4.081	324.999	330.131	0.000
1.980	0.380	4.081	324.999	330.131	0.000
2.064	0.433	6.208	324.999	330.131	0.000
2.078	0.433	6.208	324.999	330.131	0.000
2.158	0.493	8.644	324.999	330.131	0.000
2.167	0.493	8.644	324.999	330.131	0.000
2.248	0.538	10.567	324.999	330.131	0.000
2.257	0.538	10.567	324.999	330.131	0.000
2.369	0.588	12.747	324.999	330.131	0.000
2.377	0.588	12.747	324.999	330.131	0.000
2.459	0.635	14.849	324.999	330.131	0.000
2.467	0.635	14.849	324.999	330.131	0.000
2.548	0.680	16.885	324.999	330.131	0.000
2.557	0.680	16.885	324.999	330.131	0.000
2.638	0.718	18.607	324.999	330.131	0.000
2.647	0.718	18.607	324.999	330.131	0.000
2.727	0.761	20.581	324.999	330.131	0.000
2.736	0.761	20.581	324.999	330.131	0.000
2.849	0.797	22.241	324.999	330.131	0.000
2.863	0.797	22.241	324.999	330.131	0.000
2.947	0.852	24.808	324.999	330.131	0.000
2.960	0.852	24.808	324.999	330.131	0.000
3.043	0.873	25.867	324.999	330.131	0.000
3.057	0.873	25.867	324.999	330.131	0.000
3.137	0.879	26.080	324.999	330.131	0.000
3.145	0.879	26.080	324.999	330.131	0.000
3.226	0.928	28.394	324.999	330.131	0.000
3.235	0.928	28.394	324.999	330.131	0.000
3.348	0.948	29.295	324.999	330.131	0.000
