Sample;MgB2
V-V length(cm);0.500000
Field (T);0.000000
Temp (K);20.000000
Estimated Ic, n0.0000000.0000000.0000000.0000000.0000000.0000000.0000000.0000000.0000000.0000000.0000000.0000000.0000000.0000000.0000000.0000000.0000000.0000000.0000000.0000000.0000000.0000000.0000000.0000000.0000000.0000000.0000000.0000000.0000000.0000000.0000000.0000000.0000000.0000000.0000000.0000000.0000000.0000000.0000000.0000000.0000000.0000000.0000000.0000000.0000000.0000000.0000000.0000000.0000000.6777140.0000000.0000000.0000000.0000000.0000000.0000000.0000000.0000000.0000000.0000000.0000000.0000000.0000000.0000000.0000000.0000000.0000000.0000000.0000000.0000000.0000000.0000000.0000000.0000000.0000000.0000000.0000000.0000000.0000000.0000000.0000000.0000000.0000000.0000000.0000000.0000000.0000000.0000000.0000000.0000000.0000000.0000000.0000000.0000000.0000000.0000000.0000000.0000009.54617610.043455Time	Current	Voltage
(sec)	A (50mV/300A)	uV
0.000	-0.011	-0.021	324.999	330.131	0.000
0.006	-0.011	0.000	324.999	330.131	0.000
0.014	-0.011	0.000	324.999	330.131	0.000
0.093	-0.011	-0.007	324.999	330.131	0.000
0.101	-0.011	-0.007	324.999	330.131	0.000
0.183	-0.011	-0.015	324.999	330.131	0.000
0.192	-0.011	-0.015	324.999	330.131	0.000
0.273	-0.011	-0.003	324.999	330.131	0.000
0.282	-0.011	-0.003	324.999	330.131	0.000
0.363	-0.011	0.000	324.999	330.131	0.000
0.379	-0.011	0.000	324.999	330.131	0.000
0.494	-0.010	-0.017	324.999	330.131	0.000
0.509	-0.010	-0.017	324.999	330.131	0.000
0.593	-0.011	-0.010	324.999	330.131	0.000
0.609	-0.011	-0.010	324.999	330.131	0.000
0.693	-0.010	-0.018	324.999	330.131	0.000
0.703	-0.010	-0.018	324.999	330.131	0.000
0.783	-0.011	0.012	324.999	330.131	0.000
0.792	-0.011	0.012	324.999	330.131	0.000
0.873	-0.010	0.019	324.999	330.131	0.000
0.882	-0.010	0.019	324.999	330.131	0.000
0.993	0.087	0.003	324.999	330.131	0.000
1.002	0.087	0.003	324.999	330.131	0.000
1.083	0.161	0.019	324.999	330.131	0.000
1.092	0.161	0.019	324.999	330.131	0.000
1.173	0.192	0.006	324.999	330.131	0.000
1.181	0.192	0.006	324.999	330.131	0.000
1.263	0.254	0.036	324.999	330.131	0.000
1.272	0.254	0.036	324.999	330.131	0.000
1.353	0.280	0.023	324.999	330.131	0.000
1.366	0.280	0.023	324.999	330.131	0.000
1.480	0.340	0.028	324.999	330.131	0.000
1.492	0.340	0.028	324.999	330.131	0.000
1.573	0.366	0.024	324.999	330.131	0.000
1.586	0.366	0.024	324.999	330.131	0.000
1.669	0.424	0.013	324.999	330.131	0.000
1.678	0.424	0.013	324.999	330.131	0.000
1.763	0.476	0.032	324.999	330.131	0.000
1.772	0.476	0.032	324.999	330.131	0.000
1.852	0.509	-0.007	324.999	330.131	0.000
1.862	0.509	-0.007	324.999	330.131	0.000
1.973	0.548	0.029	324.999	330.131	0.000
1.982	0.548	0.029	324.999	330.131	0.000
2.063	0.582	0.055	324.999	330.131	0.000
2.071	0.582	0.055	324.999	330.131	0.000
2.152	0.618	0.180	324.999	330.131	0.000
2.160	0.618	0.180	324.999	330.131	0.000
2.243	0.649	0.252	324.999	330.131	0.000
2.251	0.649	0.252	324.999	330.131	0.000
2.332	0.685	0.561	324.999	330.131	0.000
2.346	0.685	0.561	324.999	330.131	0.000
2.460	0.715	0.853	324.999	330.131	0.000
2.472	0.715	0.853	324.999	330.131	0.000
2.552	0.755	1.560	324.999	330.131	0.000
2.566	0.755	1.560	324.999	330.131	0.000
2.648	0.781	2.053	324.999	330.131	0.000
2.657	0.781	2.053	324.999	330.131	0.000
2.742	0.820	3.105	324.999	330.131	0.000
2.751	0.820	3.105	324.999	330.131	0.000
2.832	0.844	3.681	324.999	330.131	0.000
2.841	0.844	3.681	324.999	330.131	0.000
2.953	0.878	4.733	324.999	330.131	0.000
2.962	0.878	4.733	324.999	330.131	0.000
3.042	0.908	5.692	324.999	330.131	0.000
3.051	0.908	5.692	324.999	330.131	0.000
3.131	0.909	5.725	324.999	330.131	0.000
3.140	0.909	5.725	324.999	330.131	0.000
3.221	0.958	7.469	324.999	330.131	0.000
3.230	0.958	7.469	324.999	330.131	0.000
3.311	0.970	7.879	324.999	330.131	0.000
3.325	0.970	7.879	324.999	330.131	0.000
3.439	1.018	9.916	324.999	330.131	0.000
3.452	1.018	9.916	324.999	330.131	0.000
3.531	1.029	10.083	324.999	330.131	0.000
3.545	1.029	10.083	324.999	330.131	0.000
3.627	1.078	12.305	324.999	330.131	0.000
3.637	1.078	12.305	324.999	330.131	0.000
3.722	1.091	12.478	324.999	330.131	0.000
3.731	1.091	12.478	324.999	330.131	0.000
3.812	1.139	14.443	324.999	330.131	0.000
3.821	1.139	14.443	324.999	330.131	0.000
3.933	1.152	14.958	324.999	330.131	0.000
3.943	1.152	14.958	324.999	330.131	0.000
4.021	1.201	16.985	324.999	330.131	0.000
4.030	1.201	16.985	324.999	330.131	0.000
4.111	1.213	17.464	324.999	330.131	0.000
4.120	1.213	17.464	324.999	330.131	0.000
4.202	1.262	19.488	324.999	330.131	0.000
4.210	1.262	19.488	324.999	330.131	0.000
4.292	1.274	20.033	324.999	330.131	0.000
4.306	1.274	20.033	324.999	330.131	0.000
4.419	1.324	22.454	324.999	330.131	0.000
4.432	1.324	22.454	324.999	330.131	0.000
4.512	1.335	22.609	324.999	330.131	0.000
4.526	1.335	22.609	324.999	330.131	0.000
4.608	1.384	25.037	324.999	330.131	0.000
4.617	1.384	25.037	324.999	330.131	0.000
4.701	1.396	25.220	324.999	330.131	0.000
