Sample;MgB2
V-V length(cm);0.500000
Field (T);0.000000
Temp (K);20.000000
Estimated Ic, n0.0000000.0000000.0000000.0000000.0000000.0000000.0000000.0000000.0000000.0000000.0000000.0000000.0000000.0000000.0000000.0000000.0000000.0000000.0000000.0000000.0000000.0000000.0000000.0000000.0000000.0000000.0000000.0000000.0000000.0000000.0000000.0000000.0000000.0000000.0000000.0000000.0000000.0000000.0000000.0000000.0000000.0000000.0000000.0000000.0000000.0000000.0000000.0000000.0000000.0000000.0000000.0000000.0000000.0000000.0000000.0000000.0000000.0000000.0000000.0000000.0000000.0000000.0000000.0000000.0000000.0000000.0000000.0000000.0000000.0000000.0000000.0000000.0000000.0000000.0000000.0000000.0000000.0000000.0000000.0000000.0000000.0000000.0000000.0000000.0000000.0000000.0000000.0000000.0000000.0000000.0000000.0000000.0000000.0000000.0000000.0000000.0000000.0000000.0000000.0000000.0000000.0000000.0000000.0000000.0000000.0000000.0000000.0000000.0000000.0000000.0000000.0000000.0000000.0000000.0000000.0000000.0000000.0000000.0000000.0000000.0000000.0000000.0000000.0000000.0000000.0000000.0000000.0000000.0000000.0000000.0000000.0000000.0000000.0000000.0000000.0000000.0000000.0000000.0000000.0000000.0000000.0000000.0000000.0000000.0000000.0000000.0000000.0000000.0000000.0000000.0000000.0000000.0000000.0000000.0000000.0000000.0000000.0000000.0000000.0000000.0000000.0000000.0000000.0000000.0000000.0000000.0000000.0000000.0000000.0000000.0000000.0000000.0000000.0000000.0000000.0000000.0000000.0000000.0000000.0000000.0000000.0000000.0000000.0000000.0000000.0000000.0000000.0000000.0000000.0000000.0000000.0000000.0000000.0000000.0000000.0000000.0000000.0000000.0000000.0000000.0000000.0000000.0000000.0000000.0000000.0000000.00000037.2059050.0000000.0000000.0000000.0000000.0000000.0000000.0000000.0000000.0000000.0000000.0000000.0000000.0000000.0000000.0000000.0000000.0000000.0000000.0000000.0000000.0000000.0000000.0000000.0000000.0000000.0000000.0000000.0000000.0000000.0000000.0000000.0000000.0000000.0000000.0000000.00000023.3112425.021286Time	Current	Voltage
(sec)	A (50mV/300A)	uV
0.000	-0.010	-0.002	324.999	330.131	0.000
0.107	-0.010	-0.016	324.999	330.131	0.000
0.123	-0.010	-0.016	324.999	330.131	0.000
0.202	-0.010	-0.024	324.999	330.131	0.000
0.211	-0.010	-0.024	324.999	330.131	0.000
0.293	-0.010	-0.045	324.999	330.131	0.000
0.302	-0.010	-0.045	324.999	330.131	0.000
0.383	-0.010	-0.018	324.999	330.131	0.000
0.392	-0.010	-0.018	324.999	330.131	0.000
0.472	0.637	0.060	324.999	330.131	0.000
0.480	0.637	0.060	324.999	330.131	0.000
0.592	1.163	0.057	324.999	330.131	0.000
0.602	1.163	0.057	324.999	330.131	0.000
0.682	1.617	0.031	324.999	330.131	0.000
0.690	1.617	0.031	324.999	330.131	0.000
0.772	2.039	0.037	324.999	330.131	0.000
0.780	2.039	0.037	324.999	330.131	0.000
0.862	2.380	0.008	324.999	330.131	0.000
0.877	2.380	0.008	324.999	330.131	0.000
0.962	2.903	0.015	324.999	330.131	0.000
0.975	2.903	0.015	324.999	330.131	0.000
1.089	3.217	0.006	324.999	330.131	0.000
1.103	3.217	0.006	324.999	330.131	0.000
1.182	3.681	0.038	324.999	330.131	0.000
1.190	3.681	0.038	324.999	330.131	0.000
1.271	3.935	0.019	324.999	330.131	0.000
1.280	3.935	0.019	324.999	330.131	0.000
1.362	4.424	-0.011	324.999	330.131	0.000
1.371	4.424	-0.011	324.999	330.131	0.000
1.451	4.803	-0.021	324.999	330.131	0.000
1.459	4.803	-0.021	324.999	330.131	0.000
1.572	5.194	-0.031	324.999	330.131	0.000
1.580	5.194	-0.031	324.999	330.131	0.000
1.661	5.480	0.008	324.999	330.131	0.000
1.670	5.480	0.008	324.999	330.131	0.000
1.752	5.953	-0.022	324.999	330.131	0.000
1.760	5.953	-0.022	324.999	330.131	0.000
1.841	6.315	-0.010	324.999	330.131	0.000
1.850	6.315	-0.010	324.999	330.131	0.000
1.931	6.674	-0.016	324.999	330.131	0.000
1.945	6.674	-0.016	324.999	330.131	0.000
2.059	7.071	0.037	324.999	330.131	0.000
2.072	7.071	0.037	324.999	330.131	0.000
2.150	7.460	0.018	324.999	330.131	0.000
2.165	7.460	0.018	324.999	330.131	0.000
2.247	7.805	0.044	324.999	330.131	0.000
2.257	7.805	0.044	324.999	330.131	0.000
2.341	8.199	0.016	324.999	330.131	0.000
2.350	8.199	0.016	324.999	330.131	0.000
2.431	8.539	0.046	324.999	330.131	0.000
2.440	8.539	0.046	324.999	330.131	0.000
2.552	8.894	0.015	324.999	330.131	0.000
2.561	8.894	0.015	324.999	330.131	0.000
2.641	9.269	0.064	324.999	330.131	0.000
2.650	9.269	0.064	324.999	330.131	0.000
2.731	9.626	0.032	324.999	330.131	0.000
2.739	9.626	0.032	324.999	330.131	0.000
2.822	10.004	0.015	324.999	330.131	0.000
2.830	10.004	0.015	324.999	330.131	0.000
2.911	10.234	-0.011	324.999	330.131	0.000
2.925	10.234	-0.011	324.999	330.131	0.000
3.038	10.736	0.001	324.999	330.131	0.000
3.051	10.736	0.001	324.999	330.131	0.000
3.131	11.049	0.021	324.999	330.131	0.000
3.144	11.049	0.021	324.999	330.131	0.000
3.228	11.459	0.049	324.999	330.131	0.000
3.237	11.459	0.049	324.999	330.131	0.000
3.321	11.792	0.014	324.999	330.131	0.000
3.330	11.792	0.014	324.999	330.131	0.000
3.411	12.184	0.003	324.999	330.131	0.000
3.420	12.184	0.003	324.999	330.131	0.000
3.531	12.543	0.018	324.999	330.131	0.000
3.540	12.543	0.018	324.999	330.131	0.000
3.621	12.909	0.024	324.999	330.131	0.000
3.630	12.909	0.024	324.999	330.131	0.000
3.711	13.268	0.016	324.999	330.131	0.000
3.719	13.268	0.016	324.999	330.131	0.000
3.801	13.641	0.007	324.999	330.131	0.000
3.809	13.641	0.007	324.999	330.131	0.000
3.890	13.999	-0.018	324.999	330.131	0.000
3.905	13.999	-0.018	324.999	330.131	0.000
4.018	14.367	0.014	324.999	330.131	0.000
4.031	14.367	0.014	324.999	330.131	0.000
4.121	14.796	0.039	324.999	330.131	0.000
4.135	14.796	0.039	324.999	330.131	0.000
4.217	15.101	0.040	324.999	330.131	0.000
4.226	15.101	0.040	324.999	330.131	0.000
4.311	15.500	0.039	324.999	330.131	0.000
4.319	15.500	0.039	324.999	330.131	0.000
4.402	15.875	0.016	324.999	330.131	0.000
4.410	15.875	0.016	324.999	330.131	0.000
4.522	16.195	-0.025	324.999	330.131	0.000
4.531	16.195	-0.025	324.999	330.131	0.000
4.610	16.576	0.035	324.999	330.131	0.000
4.618	16.576	0.035	324.999	330.131	0.000
4.701	16.959	0.006	324.999	330.131	0.000
4.709	16.959	0.006	324.999	330.131	0.000
4.790	17.317	-0.036	324.999	330.131	0.000
4.799	17.317	-0.036	324.999	330.131	0.000
4.881	17.691	-0.028	324.999	330.131	0.000
4.895	17.691	-0.028	324.999	330.131	0.000
5.008	17.979	-0.013	324.999	330.131	0.000
5.020	17.979	-0.013	324.999	330.131	0.000
5.100	18.426	0.024	324.999	330.131	0.000
5.113	18.426	0.024	324.999	330.131	0.000
5.197	18.776	0.030	324.999	330.131	0.000
5.204	18.776	0.030	324.999	330.131	0.000
5.290	19.165	0.032	324.999	330.131	0.000
5.298	19.165	0.032	324.999	330.131	0.000
5.380	19.391	0.020	324.999	330.131	0.000
5.389	19.391	0.020	324.999	330.131	0.000
5.501	19.858	0.002	324.999	330.131	0.000
5.510	19.858	0.002	324.999	330.131	0.000
5.591	20.131	0.066	324.999	330.131	0.000
5.600	20.131	0.066	324.999	330.131	0.000
5.681	20.586	0.042	324.999	330.131	0.000
5.689	20.586	0.042	324.999	330.131	0.000
5.770	20.871	0.025	324.999	330.131	0.000
5.779	20.871	0.025	324.999	330.131	0.000
5.861	21.313	0.046	324.999	330.131	0.000
5.875	21.313	0.046	324.999	330.131	0.000
5.991	21.724	0.024	324.999	330.131	0.000
6.004	21.724	0.024	324.999	330.131	0.000
6.087	22.042	0.033	324.999	330.131	0.000
6.100	22.042	0.033	324.999	330.131	0.000
6.180	22.422	0.057	324.999	330.131	0.000
6.188	22.422	0.057	324.999	330.131	0.000
6.271	22.764	0.041	324.999	330.131	0.000
6.281	22.764	0.041	324.999	330.131	0.000
6.360	23.092	0.039	324.999	330.131	0.000
6.369	23.092	0.039	324.999	330.131	0.000
6.483	23.486	0.026	324.999	330.131	0.000
6.492	23.486	0.026	324.999	330.131	0.000
6.577	23.820	0.067	324.999	330.131	0.000
6.586	23.820	0.067	324.999	330.131	0.000
6.669	24.230	0.044	324.999	330.131	0.000
6.679	24.230	0.044	324.999	330.131	0.000
6.759	24.555	0.062	324.999	330.131	0.000
6.768	24.555	0.062	324.999	330.131	0.000
6.850	24.949	0.064	324.999	330.131	0.000
6.859	24.949	0.064	324.999	330.131	0.000
6.976	25.296	0.041	324.999	330.131	0.000
7.010	25.296	0.041	324.999	330.131	0.000
7.096	25.708	0.027	324.999	330.131	0.000
7.122	25.708	0.027	324.999	330.131	0.000
7.206	26.049	0.049	324.999	330.131	0.000
7.221	26.049	0.049	324.999	330.131	0.000
7.307	26.410	0.097	324.999	330.131	0.000
7.315	26.410	0.097	324.999	330.131	0.000
7.400	26.768	0.101	324.999	330.131	0.000
7.409	26.768	0.101	324.999	330.131	0.000
7.489	27.116	0.100	324.999	330.131	0.000
7.498	27.116	0.100	324.999	330.131	0.000
7.606	27.450	0.071	324.999	330.131	0.000
7.615	27.450	0.071	324.999	330.131	0.000
7.699	27.848	0.129	324.999	330.131	0.000
7.707	27.848	0.129	324.999	330.131	0.000
7.789	28.172	0.092	324.999	330.131	0.000
7.798	28.172	0.092	324.999	330.131	0.000
7.879	28.546	0.032	324.999	330.131	0.000
7.893	28.546	0.032	324.999	330.131	0.000
7.976	28.928	0.059	324.999	330.131	0.000
7.988	28.928	0.059	324.999	330.131	0.000
8.103	29.309	-0.005	324.999	330.131	0.000
8.117	29.309	-0.005	324.999	330.131	0.000
8.199	29.678	0.097	324.999	330.131	0.000
8.207	29.678	0.097	324.999	330.131	0.000
8.289	29.880	0.053	324.999	330.131	0.000
8.299	29.880	0.053	324.999	330.131	0.000
8.379	30.413	0.071	324.999	330.131	0.000
8.388	30.413	0.071	324.999	330.131	0.000
8.469	30.791	0.040	324.999	330.131	0.000
8.477	30.791	0.040	324.999	330.131	0.000
8.590	31.128	0.046	324.999	330.131	0.000
8.598	31.128	0.046	324.999	330.131	0.000
8.679	31.373	0.117	324.999	330.131	0.000
8.688	31.373	0.117	324.999	330.131	0.000
8.769	31.877	0.093	324.999	330.131	0.000
8.778	31.877	0.093	324.999	330.131	0.000
8.858	32.237	0.050	324.999	330.131	0.000
8.873	32.237	0.050	324.999	330.131	0.000
8.955	32.603	0.116	324.999	330.131	0.000
8.968	32.603	0.116	324.999	330.131	0.000
9.080	32.997	0.108	324.999	330.131	0.000
9.093	32.997	0.108	324.999	330.131	0.000
9.175	33.330	0.111	324.999	330.131	0.000
9.184	33.330	0.111	324.999	330.131	0.000
9.268	33.688	0.134	324.999	330.131	0.000
9.277	33.688	0.134	324.999	330.131	0.000
9.359	34.049	0.074	324.999	330.131	0.000
9.368	34.049	0.074	324.999	330.131	0.000
9.449	34.417	0.101	324.999	330.131	0.000
9.458	34.417	0.101	324.999	330.131	0.000
9.570	34.764	0.141	324.999	330.131	0.000
9.578	34.764	0.141	324.999	330.131	0.000
9.659	35.140	0.208	324.999	330.131	0.000
9.668	35.140	0.208	324.999	330.131	0.000
9.749	35.489	0.218	324.999	330.131	0.000
9.758	35.489	0.218	324.999	330.131	0.000
9.838	35.865	0.266	324.999	330.131	0.000
9.847	35.865	0.266	324.999	330.131	0.000
9.928	36.093	0.255	324.999	330.131	0.000
9.942	36.093	0.255	324.999	330.131	0.000
10.056	36.600	0.321	324.999	330.131	0.000
10.068	36.600	0.321	324.999	330.131	0.000
10.148	36.912	0.390	324.999	330.131	0.000
10.162	36.912	0.390	324.999	330.131	0.000
10.245	37.320	0.543	324.999	330.131	0.000
10.254	37.320	0.543	324.999	330.131	0.000
10.338	37.673	0.602	324.999	330.131	0.000
10.346	37.673	0.602	324.999	330.131	0.000
10.428	38.051	0.781	324.999	330.131	0.000
10.437	38.051	0.781	324.999	330.131	0.000
10.549	38.391	1.011	324.999	330.131	0.000
10.557	38.391	1.011	324.999	330.131	0.000
10.638	38.762	1.345	324.999	330.131	0.000
10.648	38.762	1.345	324.999	330.131	0.000
10.728	39.133	1.590	324.999	330.131	0.000
10.737	39.133	1.590	324.999	330.131	0.000
10.817	39.486	1.915	324.999	330.131	0.000
10.827	39.486	1.915	324.999	330.131	0.000
10.908	39.862	2.470	324.999	330.131	0.000
10.922	39.862	2.470	324.999	330.131	0.000
11.035	40.146	3.194	324.999	330.131	0.000
11.048	40.146	3.194	324.999	330.131	0.000
11.128	40.593	4.330	324.999	330.131	0.000
11.142	40.593	4.330	324.999	330.131	0.000
11.225	40.942	5.929	324.999	330.131	0.000
11.233	40.942	5.929	324.999	330.131	0.000
11.318	41.321	7.344	324.999	330.131	0.000
11.326	41.321	7.344	324.999	330.131	0.000
11.408	41.546	8.498	324.999	330.131	0.000
11.417	41.546	8.498	324.999	330.131	0.000
11.528	42.021	11.254	324.999	330.131	0.000
11.537	42.021	11.254	324.999	330.131	0.000
11.617	42.348	13.573	324.999	330.131	0.000
11.625	42.348	13.573	324.999	330.131	0.000
11.707	42.752	17.052	324.999	330.131	0.000
11.716	42.752	17.052	324.999	330.131	0.000
11.797	43.042	20.187	324.999	330.131	0.000
11.806	43.042	20.187	324.999	330.131	0.000
11.887	43.479	25.604	324.999	330.131	0.000
11.901	43.479	25.604	324.999	330.131	0.000
12.014	43.841	31.802	324.999	330.131	0.000
